* Measurement data measured by REW V5.20 Beta 53
* Source: C:\Users\Napie\Music\REW\Top Speakers\New Folder\9-On Axis.txt
* Format: Comma/Tab/Space delimited data
* Dated: May 26, 2020 3:12:55 PM
* REW Settings:
*  C-weighting compensation: Off
*  Target level: 75.0 dB
* Note: ; Measurement imported from C:\Users\Napie\Music\REW\Top Speakers\New Folder\9-On Axis.txt Format: Comma/Tab/Space delimited data 623 values loaded, 5 Hz to 39,792 Hz log spaced 
* Measurement: 9-On Axis
* Smoothing: None
* Frequency Step: 1/96 octave
* Start Frequency: 20.000 Hz
*
* Freq(Hz)	SPL(dB)	Phase(degrees)
20.000000	57.998844	-165.2387
20.144928	58.161850	-165.5621
20.290907	58.324856	-165.8947
20.437943	58.493313	-166.2736
20.586044	58.649899	-166.6048
20.735220	58.755215	-166.7660
20.885475	58.880821	-166.8789
21.036821	59.113945	-167.0054
21.189262	59.368690	-167.2027
21.342808	59.570255	-167.5625
21.497467	59.771740	-168.0423
21.653246	60.017429	-168.6177
21.810154	60.259693	-169.3250
21.968201	60.465267	-170.2456
22.127390	60.634838	-171.2209
22.287735	60.745789	-172.1208
22.449242	60.834930	-172.9404
22.611917	60.938839	-173.6337
22.775772	61.035889	-174.1954
22.940815	61.099472	-174.5733
23.107054	61.180870	-174.8616
23.274498	61.344006	-175.1219
23.443153	61.524757	-175.4006
23.613033	61.672283	-175.8134
23.784142	61.809887	-176.2147
23.956491	61.928253	-176.4397
24.130091	62.074810	-176.6607
24.304947	62.319801	-176.9761
24.481071	62.585655	-177.4443
24.658470	62.811577	-178.2099
24.837156	63.016727	-179.1127
25.017136	63.190918	179.9849
25.198421	63.361824	179.0081
25.381020	63.562679	177.9694
25.564941	63.766804	176.7433
25.750195	63.982975	175.1240
25.936790	64.137871	173.3633
26.124741	64.129074	171.5931
26.314051	64.052139	169.9682
26.504732	63.976368	168.7089
26.696796	63.879131	167.7510
26.890253	63.746780	167.1266
27.085112	63.621128	166.7653
27.281382	63.559566	166.5823
27.479073	63.502087	166.6527
27.678198	63.365364	167.0868
27.878765	63.276058	167.6960
28.080786	63.385483	168.3539
28.284271	63.537792	168.9832
28.489231	63.593807	169.4249
28.695675	63.652897	169.7985
28.903616	63.796036	170.1599
29.113064	63.940815	170.5424
29.324028	63.997803	170.9973
29.536524	64.067886	171.5273
29.750557	64.243645	172.1959
29.966141	64.461739	172.8733
30.183289	64.675163	173.4548
30.402010	64.926659	173.9285
30.622314	65.242256	174.3554
30.844217	65.625488	174.4133
31.067726	66.135971	173.7613
31.292856	66.631310	172.5143
31.519617	66.966415	170.5905
31.748020	67.207764	168.2401
31.978081	67.406700	165.5617
32.209808	67.465034	162.9303
32.443211	67.236519	160.7182
32.678310	66.915443	159.0318
32.915108	66.681549	158.1121
33.153625	66.434334	157.9277
33.393871	66.060364	158.6413
33.635857	65.776306	159.9107
33.879597	65.832932	161.5644
34.125103	66.016716	163.2518
34.372387	66.166313	164.5513
34.621464	66.372627	165.5029
34.872345	66.725426	165.9549
35.125042	67.068619	166.0620
35.379574	67.229294	165.8641
35.635948	67.345856	165.5564
35.894180	67.520576	165.3870
36.154285	67.690758	165.2372
36.416275	67.819382	165.0322
36.680161	67.930840	164.8861
36.945961	68.030533	164.9057
37.213688	68.138824	165.0397
37.483353	68.279327	165.3005
37.754974	68.447716	165.6035
38.028561	68.658005	165.8094
38.304131	68.878708	166.0935
38.581699	69.007622	166.8479
38.861279	69.270432	167.2868
39.142883	70.026657	166.7087
39.426529	70.775131	165.2466
39.712231	71.057785	162.3957
40.000000	71.099091	159.3732
40.289856	70.917961	157.3286
40.581814	70.676331	155.9694
40.875885	70.562370	155.5150
41.172089	70.517021	155.5706
41.470440	70.529587	155.9164
41.770950	70.641724	156.2446
42.073643	70.943115	156.1687
42.378525	71.279541	155.7040
42.685616	71.504280	154.6510
42.994934	71.682777	153.2701
43.306492	71.829803	151.8307
43.620308	71.951828	150.1089
43.936401	72.128120	147.7523
44.254780	72.155144	145.4115
44.575470	71.740227	143.5601
44.898483	71.227791	142.3832
45.223835	70.911232	142.3799
45.551544	70.655342	143.0816
45.881630	70.388657	144.2504
46.214108	70.210175	145.6877
46.548996	70.248428	147.1246
46.886307	70.344849	148.5349
47.226067	70.348061	149.7549
47.568283	70.362938	150.9280
47.912983	70.468735	152.1458
48.260181	70.592796	153.4028
48.609894	70.656258	154.7479
48.962143	70.755791	156.1099
49.316940	70.991142	157.4825
49.674313	71.275528	158.7202
50.034271	71.550507	159.6385
50.396843	71.829575	160.3461
50.762039	72.118858	160.8153
51.129883	72.382584	161.2711
51.500389	72.531166	162.0326
51.873581	72.731544	162.7917
52.249481	73.188400	163.4176
52.628101	73.701157	163.6939
53.009464	74.120827	163.2496
53.393593	74.494400	162.4177
53.780506	74.818810	161.4002
54.170223	75.096581	160.2230
54.562763	75.332092	158.9518
54.958145	75.516754	157.6680
55.356396	75.636589	156.4515
55.757530	75.711906	155.3736
56.161572	75.758644	154.5046
56.568542	75.775993	153.9277
56.978462	75.742493	153.7994
57.391350	75.735954	153.9705
57.807232	75.845688	154.4250
58.226128	76.016663	154.9172
58.648056	76.248291	155.0832
59.073048	76.465683	155.2586
59.501114	76.525955	155.7351
59.932281	76.631706	156.2860
60.366577	77.006454	156.8639
60.804020	77.447250	157.2197
61.244629	77.806534	156.9705
61.688435	78.138443	156.4690
62.135452	78.428558	156.0252
62.585712	78.736435	155.3903
63.039234	79.168457	154.3669
63.496040	79.570412	153.1062
63.956161	79.776787	151.6233
64.419617	79.925751	150.1316
64.886421	80.112724	148.9159
65.356621	80.302666	147.7790
65.830215	80.492325	146.6238
66.307251	80.680641	145.4313
66.787743	80.877281	144.1105
67.271713	81.046730	142.7813
67.759193	81.136681	141.5201
68.250206	81.206871	140.3679
68.744774	81.304565	139.4317
69.242928	81.415802	138.5894
69.744690	81.546074	137.7540
70.250084	81.683731	136.9256
70.759148	81.817688	136.0693
71.271896	81.951752	135.2036
71.788361	82.086250	134.3366
72.308571	82.220749	133.4647
72.832550	82.354752	132.5887
73.360321	82.488747	131.7036
73.891922	82.624748	130.8026
74.427376	82.757751	129.8918
74.966705	82.883965	128.9593
75.509949	83.001793	128.0516
76.057121	83.101929	127.2100
76.608261	83.203796	126.4384
77.163399	83.316002	125.8165
77.722557	83.461662	125.1584
78.285767	83.696510	124.2851
78.853058	83.931564	123.2542
79.424461	84.075066	122.0213
80.000000	84.189796	120.7155
80.579712	84.317764	119.4558
81.163628	84.430801	118.2293
81.751770	84.503242	117.0602
82.344177	84.568855	115.9542
82.940880	84.658302	114.9459
83.541901	84.755798	113.9729
84.147285	84.855919	112.9798
84.757050	84.957802	111.9799
85.371231	85.058365	110.9678
85.989868	85.158791	109.9451
86.612984	85.259293	108.9128
87.240616	85.359810	107.8671
87.872803	85.460236	106.8081
88.509560	85.560791	105.7252
89.150940	85.663979	104.6045
89.796967	85.762810	103.4554
90.447670	85.850266	102.2739
91.103088	85.928856	101.0874
91.763260	85.996559	99.9233
92.428215	86.059883	98.7773
93.097992	86.125366	97.6585
93.772614	86.190872	96.5532
94.452133	86.256302	95.4512
95.136566	86.321869	94.3502
95.825966	86.387863	93.2461
96.520363	86.453865	92.1353
97.219788	86.519424	91.0148
97.924286	86.584869	89.8803
98.633881	86.650314	88.7289
99.348625	86.715874	87.5543
100.068542	86.781860	86.3548
100.793686	86.847832	85.1151
101.524078	86.913391	83.8360
102.259766	86.978828	82.4675
103.000778	87.060471	80.9103
103.747162	87.109962	79.3130
104.498962	87.054817	77.8015
105.256203	86.983124	76.3476
106.018929	86.988678	74.9636
106.787186	86.983047	73.6535
107.561012	86.879700	72.4096
108.340446	86.765175	71.2787
109.125526	86.712936	70.3453
109.916290	86.677055	69.4875
110.712791	86.633087	68.5943
111.515060	86.589088	67.7158
112.323143	86.545090	66.8661
113.137085	86.501091	66.0427
113.956924	86.457100	65.2468
114.782700	86.413109	64.4799
115.614464	86.369095	63.7398
116.452255	86.325081	63.0382
117.296112	86.277458	62.3960
118.146095	86.237068	61.7842
119.002228	86.216530	61.1965
119.864563	86.207008	60.5857
120.733154	86.209747	59.8858
121.608040	86.207016	59.1456
122.489258	86.174911	58.3811
123.376869	86.133110	57.6258
124.270905	86.094833	56.9277
125.171425	86.056068	56.2602
126.078468	86.017075	55.6122
126.992081	85.978081	54.9843
127.912323	85.939514	54.3735
128.839233	85.901077	53.7792
129.772842	85.862640	53.1995
130.713242	85.824074	52.6341
131.660431	85.785095	52.0822
132.614502	85.746109	51.5435
133.575485	85.707588	51.0170
134.543427	85.669067	50.5030
135.518387	85.630074	50.0006
136.500412	85.591072	49.5109
137.489548	85.552521	49.0349
138.485855	85.514099	48.5711
139.489380	85.475647	48.1185
140.500168	85.437080	47.6779
141.518295	85.398087	47.2498
142.543793	85.359100	46.8341
143.576721	85.320587	46.4303
144.617142	85.282082	46.0398
145.665100	85.243088	45.6633
146.720642	85.204102	45.3019
147.783844	85.165604	44.9562
148.854752	85.127098	44.6288
149.933411	85.088104	44.3193
151.019897	85.049103	44.0376
152.114243	85.008736	43.7930
153.216522	84.972092	43.5865
154.326797	84.940750	43.4419
155.445114	84.924019	43.3013
156.571533	84.938705	43.1219
157.706116	84.963936	42.8817
158.848923	84.984459	42.5281
160.000000	84.999969	42.1090
161.159424	85.002251	41.6554
162.327255	85.000000	41.1661
163.503540	85.000000	40.6653
164.688354	85.000008	40.1093
165.881760	85.008560	39.4431
167.083801	85.000061	38.7249
168.294571	84.944229	37.9702
169.514099	84.863220	37.2526
170.742462	84.766823	36.6613
171.979736	84.662285	36.1652
173.225967	84.561249	35.7693
174.481232	84.460228	35.4526
175.745605	84.359657	35.1951
177.019119	84.259239	34.9994
178.301880	84.158806	34.8603
179.593933	84.058250	34.7811
180.895340	83.957245	34.7607
182.206177	83.856239	34.8078
183.526520	83.755676	34.9184
184.856430	83.655228	35.1304
186.195984	83.542557	35.5170
187.545227	83.454163	35.9689
188.904266	83.441673	36.4134
190.273132	83.447983	36.8121
191.651932	83.428879	37.0551
193.040726	83.396118	37.2843
194.439575	83.338921	37.6013
195.848572	83.281143	38.0206
197.267761	83.231956	38.6648
198.697250	83.224945	39.3105
200.137085	83.332718	39.7534
201.587372	83.447769	40.0565
203.048157	83.461952	40.1524
204.519531	83.448051	40.2307
206.001556	83.442001	40.5005
207.494324	83.447960	40.8372
208.997925	83.487251	41.1994
210.512405	83.543854	41.5422
212.037857	83.610153	41.7995
213.574371	83.681824	41.9936
215.122025	83.751320	42.1207
216.680893	83.820816	42.1949
218.251053	83.889801	42.2293
219.832581	83.958801	42.2220
221.425583	84.028305	42.1771
223.030121	84.097824	42.0893
224.646286	84.166885	41.9623
226.274170	84.235817	41.7736
227.913849	84.312004	41.4822
229.565399	84.373878	41.1458
231.228928	84.394096	40.7911
232.904510	84.397011	40.4719
234.592224	84.398445	40.2502
236.292191	84.397011	40.1282
238.004456	84.380890	40.1923
239.729126	84.396889	40.2510
241.466309	84.525635	40.1224
243.216080	84.654716	39.8609
244.978516	84.671143	39.4053
246.753738	84.655060	38.9223
248.541809	84.654999	38.5994
250.342850	84.654999	38.3158
252.156937	84.665367	37.9673
253.984161	84.655067	37.6876
255.824646	84.569046	37.5970
257.678467	84.489159	37.6338
259.545685	84.500923	37.8177
261.426483	84.539894	38.0235
263.320862	84.564995	38.1054
265.229004	84.589928	38.1429
267.150970	84.617111	38.1591
269.086853	84.639938	38.1799
271.036774	84.650604	38.2101
273.000824	84.654991	38.3354
274.979095	84.630959	38.7303
276.971710	84.654808	39.1340
278.978760	84.841667	39.3594
281.000336	85.054466	39.3554
283.036591	85.176277	38.9285
285.087585	85.258804	38.3200
287.153442	85.317314	37.7002
289.234283	85.345955	37.0926
291.330200	85.336060	36.5734
293.441284	85.311081	36.1530
295.567688	85.290924	35.8872
297.709503	85.278023	35.7153
299.866821	85.281105	35.6187
302.039795	85.300911	35.5263
304.228485	85.350960	35.3513
306.433044	85.401871	35.1217
308.653595	85.422768	34.8159
310.890228	85.430992	34.4969
313.143066	85.432816	34.2266
315.412231	85.431007	33.9886
317.697845	85.431000	33.7868
320.000000	85.431000	33.6214
322.318848	85.427376	33.5034
324.654510	85.430969	33.4053
327.007080	85.452789	33.3336
329.376709	85.488861	33.1976
331.763519	85.556679	32.8652
334.167603	85.602928	32.4652
336.589142	85.561180	32.0352
339.028198	85.487236	31.7196
341.484924	85.403587	31.7456
343.959473	85.345100	31.9055
346.451935	85.378990	32.0702
348.962463	85.430862	32.2266
351.491211	85.432755	32.2883
354.038239	85.430992	32.3468
356.603760	85.452789	32.4878
359.187866	85.488869	32.6445
361.790680	85.534966	32.8086
364.412354	85.602768	32.8890
367.053040	85.724083	32.7551
369.712860	85.834724	32.5168
372.391968	85.852234	32.2438
375.090454	85.861938	31.9290
377.808533	85.949425	31.5984
380.546265	86.033798	31.2202
383.303864	86.044754	30.7375
386.081451	86.034035	30.2494
388.879150	86.036804	29.8503
391.697144	86.034027	29.4990
394.535522	86.014320	29.1793
397.394501	85.989075	28.9087
400.274170	85.967064	28.7032
403.174744	85.945076	28.5514
406.096313	85.922203	28.4438
409.039062	85.900070	28.3911
412.003113	85.878250	28.3979
414.988647	85.862038	28.4727
417.995850	85.848694	28.6635
421.024811	85.861893	28.8564
424.075714	85.940842	28.9669
427.148743	86.036705	28.9523
430.244049	86.113220	28.7023
433.361786	86.170853	28.3363
436.502106	86.193649	27.9218
439.665161	86.195023	27.5063
442.851166	86.180435	27.1663
446.060242	86.158066	26.8818
449.292572	86.139114	26.6648
452.548340	86.120056	26.4955
455.827698	86.100998	26.3571
459.130798	86.082062	26.2513
462.457855	86.063553	26.1734
465.809021	86.045052	26.1261
469.184448	86.026123	26.1082
472.584381	86.007065	26.1269
476.008911	85.986687	26.1875
479.458252	85.969048	26.2946
482.932617	85.954285	26.4778
486.432159	85.952972	26.6685
489.957031	85.991066	26.7759
493.507477	86.022934	26.8936
497.083618	85.986198	27.0925
500.685699	85.956047	27.3521
504.313873	86.004654	27.7151
507.968323	86.080742	28.0601
511.649292	86.154640	28.2570
515.356934	86.231750	28.3708
519.091370	86.307259	28.4218
522.852966	86.382751	28.4151
526.641724	86.458252	28.3634
530.458008	86.533752	28.2644
534.301941	86.609245	28.1227
538.173706	86.684738	27.9297
542.073547	86.760490	27.6875
546.001648	86.835739	27.3693
549.958191	86.918686	26.9236
553.943420	86.982841	26.4266
557.957520	86.992203	25.9240
562.000671	86.983040	25.4564
566.073181	86.983002	25.0989
570.175171	86.983002	24.7960
574.306885	86.983002	24.5187
578.468567	86.983002	24.2609
582.660400	86.985001	24.0056
586.882568	86.983009	23.7559
591.135376	86.975861	23.4769
595.419006	86.951118	23.2655
599.733643	86.878754	23.2213
604.079590	86.810188	23.3025
608.456970	86.801178	23.5140
612.866089	86.809959	23.8129
617.307190	86.798759	24.1671
621.780457	86.809898	24.5487
626.286133	86.883324	24.9586
630.824463	86.989609	25.2782
635.395691	87.121674	25.3572
640.000000	87.251579	25.2885
644.637695	87.337852	25.1044
649.309021	87.413742	24.8390
654.014160	87.506371	24.5442
658.753418	87.593719	24.1982
663.527039	87.660355	23.7785
668.335205	87.712845	23.3395
673.178284	87.749634	22.9302
678.056396	87.779900	22.5453
682.969849	87.813324	22.1996
687.918945	87.846886	21.8811
692.903870	87.878700	21.5889
697.924927	87.914864	21.3030
702.982422	87.964378	21.0042
708.076477	88.016815	20.6882
713.207520	88.062462	20.3417
718.375732	88.107834	19.9743
723.581360	88.157196	19.5952
728.824707	88.207825	19.1935
734.106079	88.258255	18.7608
739.425720	88.308823	18.2987
744.783936	88.359383	17.8082
750.180908	88.409821	17.2830
755.617065	88.459824	16.7206
761.092529	88.509819	16.1104
766.607727	88.560570	15.4504
772.162903	88.610817	14.7108
777.758301	88.667503	13.8410
783.394287	88.706909	12.9004
789.071045	88.697075	11.9259
794.789001	88.669113	10.9365
800.548340	88.649948	9.9790
806.349487	88.621117	9.0065
812.192627	88.576950	7.9605
818.078125	88.505318	6.9216
824.006226	88.386421	5.9268
829.977295	88.237572	5.0498
835.991699	88.062515	4.3956
842.049622	87.882637	3.9095
848.151428	87.728310	3.5729
854.297485	87.576561	3.3795
860.488098	87.402756	3.3333
866.723572	87.241539	3.3847
873.004211	87.133240	3.5029
879.330322	87.037354	3.6356
885.702332	86.932045	3.6513
892.120483	86.800545	3.7543
898.585144	86.589027	4.1354
905.096680	86.386673	4.7086
911.655396	86.296402	5.4453
918.261597	86.225281	6.3603
924.915710	86.068779	7.5032
931.618042	85.961212	8.7413
938.368896	86.046837	10.0260
945.168762	86.195396	11.1542
952.017822	86.319099	11.8220
958.916504	86.430611	12.2805
965.865234	86.499374	12.7001
972.864319	86.568710	13.0280
979.914062	86.692215	13.2496
987.014954	86.809608	13.4174
994.167236	86.851181	13.5851
1001.371399	86.896782	13.7345
1008.627747	87.022247	13.9144
1015.936646	87.172333	13.9781
1023.298584	87.322525	13.7435
1030.713867	87.454636	13.3614
1038.182739	87.526337	12.9277
1045.705933	87.585732	12.4312
1053.283447	87.681641	11.8995
1060.916016	87.770660	11.3097
1068.603882	87.814049	10.6459
1076.347412	87.844879	9.9151
1084.147095	87.898636	9.1077
1092.003296	87.930962	8.2579
1099.916382	87.896881	7.3695
1107.886841	87.832306	6.5253
1115.915039	87.757622	5.8379
1124.001343	87.675308	5.2231
1132.146362	87.609657	4.5863
1140.350342	87.515450	4.0676
1148.613770	87.326691	3.7698
1156.937134	87.128784	3.7147
1165.320801	86.994820	4.0142
1173.765137	86.898346	4.5005
1182.270752	86.833572	5.0691
1190.838013	86.810005	5.6378
1199.467285	86.847099	6.1013
1208.159180	86.909737	6.4260
1216.913940	86.970779	6.5158
1225.732178	87.024834	6.4535
1234.614380	87.054985	6.2775
1243.560913	87.068977	6.0270
1252.572266	87.069283	5.7540
1261.648926	87.055092	5.4583
1270.791382	87.032707	5.1163
1280.000000	86.983269	4.8478
1289.275391	86.865242	4.7909
1298.618042	86.752396	4.8684
1308.028320	86.723610	5.1009
1317.506836	86.723961	5.3302
1327.054077	86.731293	5.3547
1336.670410	86.724083	5.3221
1346.356567	86.659851	5.3017
1356.112793	86.579308	5.3328
1365.939697	86.518242	5.4696
1375.837891	86.450310	5.7356
1385.807739	86.344490	6.1737
1395.849854	86.249313	6.7783
1405.964844	86.203773	7.6236
1416.152954	86.206886	8.5128
1426.415039	86.288193	9.2661
1436.751465	86.394585	9.9019
1447.162720	86.469574	10.3718
1457.649414	86.551636	10.6990
1468.212158	86.672752	10.9075
1478.851440	86.797531	10.9463
1489.567871	86.905502	10.7316
1500.361816	86.982788	10.3835
1511.234131	87.005379	9.9517
1522.185059	86.983192	9.5655
1533.215454	86.913017	9.3303
1544.325806	86.810501	9.3680
1555.516602	86.662285	9.8970
1566.788574	86.552307	10.7339
1578.142090	86.576591	11.8711
1589.578003	86.687370	12.9937
1601.096680	86.888939	13.7533
1612.698975	87.119049	14.2366
1624.385254	87.301674	14.4010
1636.156250	87.481186	14.2930
1648.012451	87.695023	13.9420
1659.954590	87.890350	13.3576
1671.983398	88.023209	12.4975
1684.099243	88.102783	11.5480
1696.302856	88.114616	10.6578
1708.594971	88.086197	9.9000
1720.976196	88.028198	9.4390
1733.447144	87.977165	9.1490
1746.008423	87.984718	8.9982
1758.660645	88.016830	8.8636
1771.404663	88.065186	8.5724
1784.240967	88.102890	8.2404
1797.170288	88.087982	7.9044
1810.193359	88.057129	7.6328
1823.310791	88.031898	7.5294
1836.523193	88.017021	7.5259
1849.831421	88.021484	7.6276
1863.236084	88.053772	7.7158
1876.737793	88.144943	7.6500
1890.337524	88.236656	7.4978
1904.035645	88.262505	7.2564
1917.833008	88.275940	7.0000
1931.730469	88.315315	6.8215
1945.728638	88.361786	6.6627
1959.828125	88.399681	6.5334
1974.029907	88.456688	6.3192
1988.334473	88.587135	5.8604
2002.742798	88.696678	5.2985
2017.255493	88.674179	4.6802
2031.873291	88.621208	4.1349
2046.597168	88.606628	3.8919
2061.427734	88.620857	3.7000
2076.365479	88.696526	3.3715
2091.411865	88.774719	2.9371
2106.566895	88.804337	2.2874
2121.832031	88.793137	1.6574
2137.207764	88.708511	1.2643
2152.694824	88.621292	1.0574
2168.294189	88.599503	1.1262
2184.006592	88.620804	1.2644
2199.832764	88.695793	1.2874
2215.773682	88.792580	1.2155
2231.830078	88.875328	1.0042
2248.002686	88.965591	0.6677
2264.292725	89.080429	0.2115
2280.700684	89.198494	-0.3821
2297.227539	89.301392	-1.1356
2313.874268	89.396622	-2.0310
2330.641602	89.490135	-3.0626
2347.530273	89.568703	-4.2147
2364.541504	89.618088	-5.4778
2381.676025	89.646912	-6.8276
2398.934570	89.661232	-8.2396
2416.318359	89.655075	-9.7043
2433.827881	89.618065	-11.1780
2451.464355	89.569206	-12.7382
2469.228760	89.547714	-14.4886
2487.121826	89.483429	-16.3091
2505.144531	89.285622	-18.0851
2523.297852	89.053062	-19.8996
2541.582764	88.919853	-21.9138
2560.000000	88.693405	-23.7823
2578.550781	88.130157	-25.2228
2597.236084	87.509804	-26.1957
2616.056641	87.103996	-26.5201
2635.013672	86.703842	-26.3398
2654.108154	86.129234	-25.7870
2673.340820	85.555412	-24.7219
2692.713135	85.125923	-22.9818
2712.225586	84.762611	-20.7615
2731.879395	84.405899	-18.1619
2751.675781	84.138962	-15.3098
2771.615479	84.049828	-12.2892
2791.699707	84.067734	-9.3298
2811.929688	84.155769	-6.7122
2832.305908	84.297241	-4.3723
2852.830078	84.464172	-2.3528
2873.502930	84.654137	-0.6100
2894.325439	84.855682	0.8857
2915.298828	85.067993	2.1328
2936.424316	85.297409	3.0947
2957.702881	85.511131	3.9036
2979.135742	85.657036	4.6681
3000.723633	85.798340	5.4266
3022.468262	85.984467	6.2998
3044.370117	86.206879	7.1493
3066.430908	86.466263	7.9562
3088.651611	86.783432	8.4786
3111.033203	87.230103	8.3837
3133.577148	87.655190	7.9199
3156.284180	87.870369	7.1987
3179.156006	88.054062	6.3085
3202.193359	88.360909	5.4484
3225.397949	88.681511	4.3966
3248.770508	88.949463	2.9399
3272.312500	89.185013	1.2440
3296.024902	89.380043	-0.5658
3319.909180	89.555222	-2.5732
3343.966797	89.749969	-4.8515
3368.198486	89.900452	-7.3119
3392.605713	89.932434	-9.9047
3417.189941	89.914154	-12.5835
3441.952393	89.905418	-15.2556
3466.894287	89.860313	-18.0104
3492.016846	89.760376	-20.9697
3517.321289	89.581047	-23.9484
3542.809326	89.283783	-26.8714
3568.481934	88.892021	-29.5256
3594.340576	88.400452	-31.6885
3620.386719	87.857651	-33.3107
3646.621582	87.289856	-34.1622
3673.046387	86.759346	-34.5638
3699.662842	86.381050	-34.7675
3726.472168	86.024712	-34.7604
3753.475586	85.558029	-34.6207
3780.675049	85.096977	-34.3237
3808.071289	84.756721	-33.8893
3835.666016	84.412750	-33.2605
3863.460938	83.937660	-32.4490
3891.457275	83.450310	-31.2679
3919.656250	83.012466	-29.3523
3948.059814	82.673286	-27.2430
3976.668945	82.578804	-25.4413
4005.485596	82.500587	-23.7195
4034.510986	82.184715	-22.1074
4063.746582	81.845558	-20.3206
4093.194336	81.626373	-17.9213
4122.855469	81.496414	-15.3906
4152.730957	81.496704	-13.0549
4182.823730	81.551682	-10.9582
4213.133789	81.603653	-9.3248
4243.664062	81.637917	-7.9362
4274.415527	81.605919	-6.6475
4305.389648	81.552277	-5.4557
4336.588379	81.537659	-4.4027
4368.013184	81.467560	-3.2123
4399.665527	81.205879	-1.6335
4431.547363	80.934181	0.3740
4463.660156	80.810760	3.0402
4496.005371	80.775963	6.0453
4528.585449	80.792503	9.3129
4561.401367	80.946846	12.3358
4594.455078	81.426430	14.4481
4627.748535	81.895081	16.0403
4661.283203	81.975494	17.1155
4695.060547	81.967049	18.1871
4729.083008	82.059540	19.9698
4763.352051	82.218056	21.8751
4797.869141	82.509674	23.4849
4832.636719	82.813568	24.9767
4867.655762	82.984390	26.3702
4902.928711	83.159027	27.7343
4938.457520	83.453400	29.2021
4974.243652	83.791336	30.6017
5010.289062	84.116577	31.8334
5046.595703	84.481033	32.8089
5083.165527	84.949791	33.4167
5120.000000	85.429657	33.6260
5157.101562	85.846298	33.2750
5194.472168	86.205368	32.6466
5232.113281	86.471794	31.9579
5270.027344	86.694939	31.2534
5308.216309	86.917480	30.6537
5346.681641	87.125984	30.1443
5385.426270	87.301651	29.8046
5424.451172	87.501862	29.4728
5463.758789	87.805763	29.0436
5503.351562	88.131386	28.4228
5543.230957	88.420685	27.4171
5583.399414	88.677811	26.2174
5623.859375	88.875275	24.9618
5664.611816	89.051132	23.6229
5705.660156	89.247597	22.2260
5747.005859	89.426155	20.7469
5788.650879	89.558472	19.1348
5830.597656	89.654594	17.4944
5872.848633	89.706604	15.9336
5915.405762	89.740837	14.3959
5958.271484	89.793381	12.8671
6001.447266	89.827904	11.3250
6044.936523	89.821770	9.6875
6088.740234	89.768410	8.1205
6132.861816	89.637253	6.7587
6177.303223	89.477821	5.6191
6222.066406	89.335464	4.7781
6267.154297	89.193710	4.1903
6312.568359	89.039673	3.8580
6358.312012	88.906570	3.7144
6404.386719	88.836082	3.7023
6450.795898	88.791199	3.7933
6497.541016	88.732925	3.9641
6544.625000	88.707008	4.1422
6592.049805	88.767166	4.2583
6639.818359	88.852547	4.2792
6687.933594	88.904716	4.1523
6736.396973	88.967621	3.8669
6785.211426	89.084808	3.4122
6834.379883	89.201454	2.7371
6883.904785	89.284317	1.7026
6933.788574	89.310051	0.5610
6984.033691	89.220299	-0.5031
7034.642578	89.086731	-1.4169
7085.618652	88.964127	-2.0001
7136.963867	88.847572	-2.3933
7188.681152	88.753502	-2.6636
7240.773438	88.671387	-2.8571
7293.243164	88.602730	-3.0687
7346.092773	88.527435	-3.2194
7399.325684	88.414169	-3.2776
7452.944336	88.297569	-3.1938
7506.951172	88.194702	-2.8535
7561.350098	88.128212	-2.4204
7616.142578	88.140816	-1.9915
7671.332031	88.189682	-1.6583
7726.921875	88.245872	-1.5473
7782.914551	88.308662	-1.6519
7839.312500	88.383171	-2.0480
7896.119629	88.423935	-2.6127
7953.337891	88.375168	-3.3003
8010.971191	88.271667	-3.9509
8069.021973	88.120125	-4.3428
8127.493164	87.950897	-4.6118
8186.388672	87.842445	-4.9745
8245.710938	87.658318	-4.9764
8305.461914	87.180206	-4.1736
8365.647461	86.726006	-2.7353
8426.267578	86.617470	-0.5365
8487.328125	86.637703	1.9715
8548.831055	86.626961	4.4315
8610.779297	86.723091	6.6741
8673.176758	87.096855	8.3594
8736.026367	87.498024	9.6440
8799.331055	87.650810	10.5342
8863.094727	87.792091	11.1503
8927.320312	88.133018	11.6736
8992.010742	88.487251	11.9305
9057.170898	88.710297	11.7072
9122.802734	88.878220	11.2964
9188.910156	89.026802	10.9091
9255.497070	89.137505	10.5884
9322.566406	89.184990	10.4545
9390.121094	89.223755	10.4844
9458.166016	89.309921	10.7185
9526.704102	89.415413	11.0838
9595.738281	89.524002	11.5118
9665.273438	89.654213	12.0270
9735.311523	89.810272	12.6807
9805.857422	90.019653	13.3257
9876.915039	90.313904	13.9437
9948.487305	90.685722	14.1971
10020.578125	91.197845	13.6301
10093.191406	91.671715	12.5690
10166.331055	91.890915	11.0938
10240.000000	92.025368	9.5024
10314.203125	92.193626	8.1677
10388.944336	92.342339	6.9517
10464.226562	92.438065	5.8578
10540.054688	92.535347	4.8232
10616.432617	92.702202	3.7766
10693.363281	92.867104	2.7451
10770.852539	92.953232	1.7299
10848.902344	93.040443	0.7393
10927.517578	93.197693	-0.1539
11006.703125	93.384933	-1.1412
11086.461914	93.599785	-2.4484
11166.798828	93.796021	-3.9066
11247.718750	93.896896	-5.3965
11329.223633	93.990448	-6.9875
11411.320312	94.177574	-8.7141
11494.011719	94.347229	-10.5656
11577.301758	94.394714	-12.5927
11661.195312	94.397057	-14.6457
11745.697266	94.407806	-16.5773
11830.811523	94.397141	-18.4272
11916.542969	94.342545	-20.1908
12002.894531	94.273399	-21.8580
12089.873047	94.214699	-23.3901
12177.480469	94.158310	-24.8677
12265.723633	94.111275	-26.3704
12354.606445	94.052368	-27.8640
12444.132812	93.960197	-29.3696
12534.308594	93.841705	-30.7986
12625.136719	93.691612	-32.0798
12716.624023	93.525894	-33.1797
12808.773438	93.348946	-33.9930
12901.591797	93.190804	-34.6635
12995.082031	93.109596	-35.3354
13089.250000	93.026505	-35.9075
13184.099609	92.845062	-36.3243
13279.636719	92.672775	-36.5851
13375.867188	92.607086	-36.6084
13472.793945	92.586037	-36.5811
13570.422852	92.580612	-36.6986
13668.759766	92.585945	-36.8589
13767.809570	92.580635	-37.0308
13867.577148	92.585915	-37.1902
13968.067383	92.610069	-37.2567
14069.285156	92.671501	-37.3680
14171.237305	92.806953	-37.6185
14273.927734	92.970078	-38.0620
14377.362305	93.128555	-38.8293
14481.546875	93.275284	-39.7826
14586.486328	93.377518	-40.8083
14692.185547	93.480347	-41.9579
14798.651367	93.632690	-43.2173
14905.888672	93.792091	-44.6738
15013.902344	93.936615	-46.4480
15122.700195	94.051468	-48.4293
15232.285156	94.109604	-50.5733
15342.664062	94.126022	-52.7974
15453.843750	94.104660	-55.0055
15565.829102	94.052361	-57.1923
15678.625000	93.978966	-59.3374
15792.239258	93.879608	-61.3922
15906.675781	93.737282	-63.2648
16021.942383	93.597687	-65.0634
16138.043945	93.524757	-66.8710
16254.986328	93.448524	-68.6746
16372.777344	93.294106	-70.4769
16491.421875	93.136810	-72.3107
16610.923828	93.056816	-74.1988
16731.294922	92.968628	-76.1732
16852.535156	92.797981	-78.3168
16974.656250	92.587372	-80.4998
17097.662109	92.359474	-82.6071
17221.558594	92.102654	-84.6705
17346.353516	91.820236	-86.7406
17472.052734	91.489189	-88.6521
17598.662109	91.059906	-90.2458
17726.189453	90.614540	-91.5493
17854.640625	90.229401	-92.4614
17984.021484	89.875923	-93.2119
18114.341797	89.568939	-94.0455
18245.605469	89.251953	-94.8257
18377.820312	88.849960	-95.5233
18510.994141	88.431465	-96.0525
18645.132812	88.035370	-96.2039
18780.242188	87.678833	-96.3162
18916.332031	87.455444	-96.7955
19053.408203	87.175026	-97.2439
19191.476562	86.600998	-97.5131
19330.546875	85.958542	-97.2426
19470.623047	85.384064	-95.8126
19611.714844	84.918274	-93.8454
19753.830078	84.685661	-91.6838
19896.974609	84.569466	-89.5711
