"Directivity Index"			
"Sound Power DI"		"Early Reflections DI"	
"Frequency [Hz]"	"[dB] Directivity Index "	"Frequency [Hz]"	"[dB] Directivity Index "
20.5078	-7.83667	20.5078	-4.2021
21.9727	-3.19428	21.9727	-1.17033
23.4375	1.55364	23.4375	1.06655
24.9023	-3.57858	24.9023	-1.06656
26.3672	-0.405135	26.3672	0.11538
27.832	0.345875	27.832	0.448581
29.2969	-0.502108	29.2969	0.0260917
30.7617	0.101339	30.7617	0.194139
32.2266	0.382038	32.2266	0.287585
33.6914	0.423952	33.6914	0.297204
35.1562	0.27147	35.1562	0.20965
36.6211	0.213066	36.6211	0.177961
38.0859	0.207559	38.0859	0.167873
39.5508	0.296104	39.5508	0.189296
41.0156	0.44927	41.0156	0.240979
42.4805	0.452933	42.4805	0.226657
43.9453	0.297349	43.9453	0.158635
45.4102	0.129115	45.4102	0.0967499
46.875	0.127279	46.875	0.0972372
48.3398	0.234607	48.3398	0.129808
51.2695	0.443484	51.2695	0.194553
52.7344	0.269363	52.7344	0.12778
54.1992	0.0937362	54.1992	0.0605539
55.6641	0.0116742	55.6641	0.0299274
58.5938	0.124718	58.5938	0.0693443
60.0586	0.251486	60.0586	0.11006
62.9883	0.2856	62.9883	0.11533
64.4531	0.10515	64.4531	0.0488849
67.3828	-0.0518219	67.3828	-0.00843161
68.8477	0.0400557	68.8477	0.0262202
71.7773	0.184865	71.7773	0.0779618
74.707	0.150604	74.707	0.0558838
77.6367	0.0560053	77.6367	0.0149737
79.1016	0.0392177	79.1016	0.0119195
82.0312	0.0458967	82.0312	0.0232053
84.9609	-0.0508934	84.9609	-0.0190228
87.8906	-0.0479734	87.8906	-0.0257339
90.8203	0.133988	90.8203	0.0541207
95.2148	-0.00822061	95.2148	-0.00583341
98.1445	0.0929435	98.1445	0.0301914
101.074	-0.0651363	101.074	-0.03586
105.469	0.0714338	105.469	0.0249889
108.398	0.0525037	108.398	0.0218811
112.793	0.252717	112.793	0.107026
117.188	0.624389	117.188	0.228867
120.117	0.59933	120.117	0.209885
124.512	0.202706	124.512	0.0564065
128.906	-0.0327296	128.906	-0.0302889
133.301	-0.0736315	133.301	-0.0250485
139.16	0.0312083	139.16	0.0347696
143.555	0.220499	143.555	0.108092
147.949	0.532704	147.949	0.219531
153.809	0.544106	153.809	0.196379
159.668	0.479165	159.668	0.168239
165.527	0.324391	165.527	0.101689
171.387	0.299613	171.387	0.102672
177.246	0.163477	177.246	0.0590448
183.105	0.219171	183.105	0.0785425
188.965	0.384617	188.965	0.156893
196.289	0.494729	196.289	0.196686
203.613	0.445009	203.613	0.187197
210.938	0.481393	210.938	0.19048
218.262	0.489655	218.262	0.210084
225.586	0.312806	225.586	0.150793
232.91	0.570054	232.91	0.228735
241.699	0.470796	241.699	0.186607
250.488	0.419242	250.488	0.204037
259.277	0.380075	259.277	0.202414
268.066	0.24521	268.066	0.191616
276.855	-0.439622	276.855	-0.118468
287.109	-0.432651	287.109	0.218774
297.363	1.37647	297.363	0.762045
307.617	1.3818	307.617	0.652931
319.336	1.47695	319.336	0.735826
329.59	1.36878	329.59	0.630991
341.309	1.48374	341.309	0.76565
353.027	1.45875	353.027	0.636308
366.211	1.44126	366.211	0.624045
379.395	1.22652	379.395	0.510873
392.578	0.568327	392.578	0.282423
405.762	-0.16637	405.762	0.618847
420.41	2.39546	420.41	1.53557
435.059	2.44701	435.059	1.24882
451.172	2.93591	451.172	1.44113
465.82	3.01804	465.82	1.37626
483.398	3.13138	483.398	1.35506
499.512	3.21422	499.512	1.39391
517.09	3.2845	517.09	1.32889
536.133	3.0922	536.133	1.23454
555.176	3.34756	555.176	1.26377
574.219	3.40378	574.219	1.29817
594.727	3.35622	594.727	1.20896
615.234	3.42624	615.234	1.17746
637.207	3.20603	637.207	1.04068
659.18	3.2186	659.18	1.07606
682.617	3.15612	682.617	1.03974
707.52	2.44625	707.52	0.458051
732.422	2.71265	732.422	0.70611
757.324	3.36593	757.324	1.09608
785.156	3.44144	785.156	1.04983
811.523	3.13175	811.523	0.81121
840.82	3.15197	840.82	0.883884
870.117	3.37437	870.117	1.06348
900.879	4.11017	900.879	1.46436
933.105	4.04702	933.105	1.4711
965.332	4.40667	965.332	1.68394
1,000.49	4.23948	1,000.49	1.60019
1,035.64	4.965	1,035.64	2.13958
1,072.27	4.82206	1,072.27	2.06326
1,108.89	4.93848	1,108.89	2.11101
1,148.44	4.97743	1,148.44	2.14568
1,189.45	5.24547	1,189.45	2.18996
1,230.47	5.27994	1,230.47	2.35393
1,274.41	5.38783	1,274.41	2.29172
1,319.82	5.57969	1,319.82	2.48122
1,366.7	5.45208	1,366.7	2.3641
1,413.57	5.23243	1,413.57	2.48164
1,463.38	4.94174	1,463.38	2.07923
1,516.11	4.38585	1,516.11	1.74105
1,568.85	4.41282	1,568.85	1.76605
1,624.51	4.61949	1,624.51	1.82703
1,681.64	5.54878	1,681.64	2.40035
1,741.7	5.40942	1,741.7	2.09915
1,803.22	5.52654	1,803.22	2.17326
1,866.21	5.13977	1,866.21	2.01382
1,932.13	5.2615	1,932.13	2.26251
1,999.51	5.73529	1,999.51	2.34957
2,069.82	6.3273	2,069.82	2.60643
2,143.07	6.04181	2,143.07	2.44253
2,219.24	5.70318	2,219.24	2.24876
2,296.88	5.69211	2,296.88	2.35584
2,378.91	6.40777	2,378.91	2.70205
2,462.4	6.9228	2,462.4	2.90701
2,548.83	6.78118	2,548.83	2.80462
2,639.65	6.14695	2,639.65	2.45986
2,731.93	6.24293	2,731.93	2.57687
2,828.61	6.73576	2,828.61	2.80584
2,928.22	6.90614	2,928.22	2.852
3,030.76	6.80874	3,030.76	2.82148
3,137.7	6.79837	3,137.7	2.85022
3,249.02	6.82073	3,249.02	2.86648
3,363.28	6.8393	3,363.28	2.84282
3,481.93	6.35994	3,481.93	2.51298
3,604.98	6.01117	3,604.98	2.24857
3,732.42	6.07509	3,732.42	2.30946
3,864.26	5.32613	3,864.26	1.91389
4,000.49	5.22269	4,000.49	1.88747
4,141.11	5.68475	4,141.11	2.13561
4,287.6	5.53773	4,287.6	1.95698
4,438.48	5.72402	4,438.48	1.93548
4,595.21	5.7553	4,595.21	2.04066
4,756.35	6.16938	4,756.35	2.32972
4,924.8	6.30044	4,924.8	2.34133
5,097.66	6.06703	5,097.66	2.13937
5,277.83	5.97218	5,277.83	2.1382
5,463.87	5.84287	5,463.87	2.03518
5,657.23	6.17757	5,657.23	2.17406
5,856.45	5.75566	5,856.45	2.07204
6,062.99	5.31609	6,062.99	1.85444
6,276.86	5.03879	6,276.86	1.72082
6,498.05	5.36407	6,498.05	1.84659
6,726.56	5.12731	6,726.56	1.65106
6,963.87	5.30586	6,963.87	1.6768
7,209.96	5.77869	7,209.96	1.87287
7,464.84	5.80482	7,464.84	1.94694
7,727.05	6.01072	7,727.05	2.181
7,999.51	5.38642	7,999.51	1.96016
8,282.23	5.50493	8,282.23	2.0384
8,573.73	5.50008	8,573.73	1.71562
8,876.95	6.36581	8,876.95	2.15851
9,188.96	6.64204	9,188.96	2.45197
9,514.16	6.99743	9,514.16	2.83491
9,849.61	7.31834	9,849.61	3.15909
10,196.8	7.84041	10,196.8	3.39913
10,555.7	8.06206	10,555.7	3.46395
10,927.7	8.22084	10,927.7	3.46647
11,313	8.20583	11,313	3.48362
11,712.9	8.0948	11,712.9	3.25861
12,126	8.48829	12,126	3.49818
12,553.7	8.81894	12,553.7	3.67958
12,996.1	9.02752	12,996.1	3.876
13,454.6	9.27724	13,454.6	4.08108
13,929.2	9.15633	13,929.2	3.97794
14,419.9	9.1874	14,419.9	4.03897
14,928.2	9.3043	14,928.2	4.07153
15,455.6	9.7218	15,455.6	4.34545
16,000.5	10.1153	16,000.5	4.57935
16,564.5	10.3009	16,564.5	4.72604
17,148.9	10.4965	17,148.9	4.81593
17,752.4	10.8148	17,752.4	4.92558
18,379.4	11.0411	18,379.4	5.03645
19,026.9	11.3011	19,026.9	5.20815
19,697.8	11.5588	19,697.8	5.35287
19,999.5	11.6117	19,999.5	5.37505
